Wavelength (micron)  Noise (photon/spectral_pixel)
      0.96453178       188.31998
      0.96464038       190.28732
      0.96474898       192.23778
      0.96485758       194.17476
      0.96496618       196.09895
      0.96507478       198.00547
      0.96518338       199.89095
      0.96529198       201.75513
      0.96540058       203.59797
      0.96550918       205.41956
      0.96561778       207.22000
      0.96572638       208.99867
      0.96583498       210.75457
      0.96594357       212.48697
      0.96605217       214.19562
      0.96616077       215.87924
      0.96626937       217.53599
      0.96637797       219.16607
      0.96648657       220.77223
      0.96659517       222.35618
      0.96670377       223.91506
      0.96681237       225.44603
      0.96692097       226.94807
      0.96702957       228.42057
      0.96713817       229.86239
      0.96724677       231.27400
      0.96735537       232.65954
      0.96746397       234.01920
      0.96757257       235.34814
      0.96768117       236.64434
      0.96778977       237.90855
      0.96789837       239.14102
      0.96800697       240.34090
      0.96811557       241.50623
      0.96822417       242.63668
      0.96833277       243.73711
      0.96844137       244.81014
      0.96854997       245.85071
      0.96865857       246.85467
      0.96876717       247.82217
      0.96887577       248.75436
      0.96898437       249.65154
      0.96909297       250.51292
      0.96920156       251.33763
      0.96931016       252.12514
      0.96941876       252.87555
      0.96952736       253.58952
      0.96963596       254.26637
      0.96974456       254.90491
      0.96985316       255.50465
      0.96996176       256.06452
      0.97007036       256.58367
      0.97017896       257.06134
      0.97028756       257.49659
      0.97039616       257.89228
      0.97050476       258.25188
      0.97061336       258.57077
      0.97072196       258.84310
      0.97083056       259.06852
      0.97093916       259.24733
      0.97104776       259.37859
      0.97115636       259.46296
      0.97126496       259.50120
      0.97137356       259.49082
      0.97148216       259.42870
      0.97159076       259.31239
      0.97169936       259.14090
      0.97180796       258.91982
      0.97191656       258.65329
      0.97202516       258.33425
      0.97213376       257.95621
      0.97224236       257.51916
      0.97235096       257.02311
      0.97245955       256.46629
      0.97256815       255.84963
      0.97267675       255.17787
      0.97278535       254.46072
      0.97289395       253.75890
      0.97300255       253.25705
      0.97311115       252.95896
      0.97321975       252.16295
      0.97332835       251.27584
      0.97343695       255.45653
      0.97354555       271.35737
      0.97365415       298.24747
      0.97376275       331.67926
      0.97387135       369.28309
      0.97397995       401.11601
      0.97408855       408.84891
      0.97419715       383.04082
      0.97430575       335.73484
      0.97441435       295.94737
      0.97452295       287.10959
      0.97463155       306.12415
      0.97474015       336.00105
      0.97484875       376.30198
      0.97495735       446.99460
      0.97506595       527.31706
      0.97517455       546.43101
      0.97528315       476.55713
      0.97539175       375.90845
      0.97550035       314.05911
      0.97560894       290.15954
      0.97571754       280.16518
      0.97582614       279.48620
      0.97593474       296.12653
      0.97604334       372.18051
      0.97615194       602.68460
      0.97626054       991.44961
      0.97636914       1356.7214
      0.97647774       1459.5168
      0.97658634       1217.3881
      0.97669494       796.88714
      0.97680354       463.07381
      0.97691214       344.08219
      0.97702074       341.60858
      0.97712934       355.78855
      0.97723794       361.05003
      0.97734654       353.14790
      0.97745514       338.67187
      0.97756374       330.71315
      0.97767234       337.00731
      0.97778094       352.13007
      0.97788954       362.35129
      0.97799814       358.20505
      0.97810674       343.17069
      0.97821534       327.74725
      0.97832394       315.72348
      0.97843254       305.13396
      0.97854114       298.90675
      0.97864974       302.19976
      0.97875834       317.27706
      0.97886693       359.75470
      0.97897553       470.48583
      0.97908413       666.66320
      0.97919273       896.01143
      0.97930133       1066.0630
      0.97940993       1099.8888
      0.97951853       980.24988
      0.97962713       762.49366
      0.97973573       553.10211
      0.97984433       457.40779
      0.97995293       492.33182
      0.98006153       584.62727
      0.98017013       660.79788
      0.98027873       671.57816
      0.98038733       605.55960
      0.98049593       495.09847
      0.98060453       398.04064
      0.98071313       356.52700
      0.98082173       364.68579
      0.98093033       392.27574
      0.98103893       418.58677
      0.98114753       438.82704
      0.98125613       456.69669
      0.98136473       472.60466
      0.98147333       476.16898
      0.98158193       456.71787
      0.98169053       424.42859
      0.98179913       405.63299
      0.98190773       406.81861
      0.98201632       408.62141
      0.98212492       399.21188
      0.98223352       384.57907
      0.98234212       372.93269
      0.98245072       364.26222
      0.98255932       356.08608
      0.98266792       351.28543
      0.98277652       356.88024
      0.98288518       374.42648
      0.98299378       392.79398
      0.98310238       397.24522
      0.98321098       384.37701
      0.98331958       364.75238
      0.98342818       351.40032
      0.98353678       347.24196
      0.98364538       345.70316
      0.98375398       339.15342
      0.98386258       326.95495
      0.98397118       315.61650
      0.98407978       308.37037
      0.98418838       303.72462
      0.98429698       301.79518
      0.98440558       302.75388
      0.98451418       306.63541
      0.98462278       319.60303
      0.98473138       359.52618
      0.98483998       443.44859
      0.98494858       553.16008
      0.98505718       638.59380
      0.98516577       658.96995
      0.98527437       610.96459
      0.98538297       529.05827
      0.98549157       458.37129
      0.98560017       415.28449
      0.98570877       386.20399
      0.98581737       361.99837
      0.98592597       344.58608
      0.98603457       334.32566
      0.98614317       329.22346
      0.98625177       327.52923
      0.98636037       328.48990
      0.98646897       337.98787
      0.98657757       385.58944
      0.98668617       504.80640
      0.98679477       639.54207
      0.98690337       682.93311
      0.98701197       618.25692
      0.98712057       581.66842
      0.98722917       710.29622
      0.98733777       914.58826
      0.98744637       1049.2257
      0.98755497       1039.1147
      0.98766357       888.42179
      0.98777217       667.85889
      0.98788077       475.23218
      0.98798937       373.01905
      0.98809797       343.77203
      0.98820657       341.35968
      0.98831517       346.53657
      0.98842376       356.58723
      0.98853236       371.35723
      0.98864096       392.10318
      0.98874956       417.62799
      0.98885816       439.59708
      0.98896676       451.61380
      0.98907536       451.18770
      0.98918396       435.06234
      0.98929256       418.01005
      0.98940116       445.80877
      0.98950976       541.59327
      0.98961836       658.82884
      0.98972696       728.79697
      0.98983556       711.22963
      0.98994416       614.66229
      0.99005276       491.97686
      0.99016136       406.24411
      0.99026996       374.90372
      0.99037856       366.62779
      0.99048716       358.96931
      0.99059576       349.85899
      0.99070436       340.12893
      0.99081296       332.49852
      0.99092156       333.62737
      0.99103016       344.57599
      0.99113876       360.75815
      0.99124736       394.84202
      0.99135596       495.30666
      0.99146456       690.53794
      0.99157315       921.23480
      0.99168175       1082.9829
      0.99179035       1099.1619
      0.99189895       963.95877
      0.99200755       745.18517
      0.99211615       549.49826
      0.99222475       448.00611
      0.99233335       414.56483
      0.99244195       403.00940
      0.99255055       412.49976
      0.99265915       436.95093
      0.99276775       447.57651
      0.99287635       431.29540
      0.99298495       403.14835
      0.99309355       382.85125
      0.99320215       374.59751
      0.99331075       371.26898
      0.99341935       367.69232
      0.99352795       364.31087
      0.99363655       364.27953
      0.99374515       367.76247
      0.99385375       372.04888
      0.99396235       387.42963
      0.99407095       451.52804
      0.99417955       595.27767
      0.99428815       783.40905
      0.99439675       941.66765
      0.99450535       1029.1350
      0.99461395       1078.0436
      0.99472255       1149.8808
      0.99483114       1234.5491
      0.99493974       1254.3241
      0.99504834       1159.7507
      0.99515694       970.84785
      0.99526554       752.17383
      0.99537414       571.17293
      0.99548274       490.97945
      0.99559134       574.94518
      0.99569994       789.57541
      0.99580854       1013.2077
      0.99591714       1134.8063
      0.99602574       1109.9153
      0.99613434       997.09565
      0.99624294       932.79499
      0.99635154       970.30436
      0.99646014       1000.7034
      0.99656874       927.81986
      0.99667734       757.11570
      0.99678594       563.53719
      0.99689454       430.18116
      0.99700314       387.20437
      0.99711174       412.82406
      0.99722034       488.68108
      0.99732894       590.70797
      0.99743754       672.43763
      0.99754614       692.12563
      0.99765474       642.65946
      0.99776334       558.51940
      0.99787194       493.97981
      0.99798054       474.28610
      0.99808913       476.05029
      0.99819773       469.27473
      0.99830633       445.40879
      0.99841493       413.19409
      0.99852353       386.01500
      0.99863213       370.92218
      0.99874073       366.53415
      0.99884933       369.07079
      0.99895793       375.53414
      0.99906653       381.60513
      0.99917519       381.63628
      0.99928373       374.59833
      0.99939239       366.14726
      0.99950099       361.82090
      0.99960959       362.80914
      0.99971819       369.03401
      0.99982679       384.66410
      0.99993539       421.55310
       1.0000440       486.72182
       1.0001526       560.80114
       1.0002612       606.91612
       1.0003698       602.06165
       1.0004784       554.62636
       1.0005870       494.10023
       1.0006956       443.78769
       1.0008042       409.18602
       1.0009128       393.95091
       1.0010214       425.35163
       1.0011300       566.42685
       1.0012386       847.27309
       1.0013472       1201.3388
       1.0014558       1501.2841
       1.0015644       1625.4729
       1.0016730       1520.6970
       1.0017816       1231.5803
       1.0018902       879.34877
       1.0019988       601.34792
       1.0021074       475.60533
       1.0022160       466.76726
       1.0023246       504.64839
       1.0024332       575.63909
       1.0025418       699.50705
       1.0026504       856.35507
       1.0027590       971.04296
       1.0028676       976.43627
       1.0029762       869.84617
       1.0030848       725.46019
       1.0031934       626.87475
       1.0033020       560.74061
       1.0034106       483.33654
       1.0035192       417.68600
       1.0036278       391.42445
       1.0037364       390.31065
       1.0038450       398.26917
       1.0039536       408.77627
       1.0040622       418.70317
       1.0041708       436.30810
       1.0042794       486.55932
       1.0043880       580.44406
       1.0044966       681.91280
       1.0046052       736.59668
       1.0047138       714.29124
       1.0048224       625.94691
       1.0049310       516.54600
       1.0050396       437.94301
       1.0051482       413.40071
       1.0052568       421.23019
       1.0053654       426.71426
       1.0054740       427.15439
       1.0055826       442.71044
       1.0056912       465.18217
       1.0057998       468.30322
       1.0059084       472.16429
       1.0060170       536.45838
       1.0061256       663.63905
       1.0062342       785.92548
       1.0063428       836.31098
       1.0064514       789.30693
       1.0065600       673.61726
       1.0066686       560.34737
       1.0067772       513.55633
       1.0068858       526.90554
       1.0069944       554.84844
       1.0071030       577.15117
       1.0072116       594.21288
       1.0073202       598.87728
       1.0074288       574.55269
       1.0075374       518.97006
       1.0076460       458.78368
       1.0077546       426.94513
       1.0078632       423.01080
       1.0079718       434.11884
       1.0080804       494.85874
       1.0081890       676.00507
       1.0082976       960.80534
       1.0084062       1230.0743
       1.0085148       1358.6137
       1.0086234       1290.6706
       1.0087320       1063.1140
       1.0088406       776.95754
       1.0089492       542.28619
       1.0090578       417.27039
       1.0091664       376.36076
       1.0092750       368.64327
       1.0093836       370.08799
       1.0094922       374.77925
       1.0096008       384.31918
       1.0097094       400.10542
       1.0098180       420.73640
       1.0099266       445.10529
       1.0100352       471.30628
       1.0101438       499.04008
       1.0102524       548.90804
       1.0103610       657.82920
       1.0104696       810.31514
       1.0105782       926.65350
       1.0106868       935.19510
       1.0107954       823.03080
       1.0109040       643.04224
       1.0110126       484.43386
       1.0111212       410.44215
       1.0112298       405.74339
       1.0113384       432.64276
       1.0114470       533.46112
       1.0115556       826.71239
       1.0116642       1259.8192
       1.0117728       1566.2025
       1.0118814       1510.3081
       1.0119900       1125.4042
       1.0120986       691.90207
       1.0122072       511.84365
       1.0123158       665.83271
       1.0124243       988.58181
       1.0125329       1321.4119
       1.0126415       1518.5537
       1.0127501       1491.0955
       1.0128587       1255.3634
       1.0129673       941.42224
       1.0130759       740.97637
       1.0131845       699.56905
       1.0132931       659.27239
       1.0134017       564.88450
       1.0135103       486.05397
       1.0136189       455.48345
       1.0137275       445.93255
       1.0138361       442.65457
       1.0139447       443.45563
       1.0140533       445.48274
       1.0141619       447.18714
       1.0142705       450.45330
       1.0143791       462.68595
       1.0144877       489.37973
       1.0145963       521.37963
       1.0147049       543.20097
       1.0148135       550.81477
       1.0149221       552.41629
       1.0150307       557.07910
       1.0151393       578.86349
       1.0152479       651.34525
       1.0153565       788.40414
       1.0154651       933.01789
       1.0155737       1001.0887
       1.0156823       951.90730
       1.0157909       820.02378
       1.0158995       700.77738
       1.0160081       665.19793
       1.0161167       672.50407
       1.0162253       653.20862
       1.0163339       600.35984
       1.0164425       556.84763
       1.0165511       554.27578
       1.0166597       572.23526
       1.0167683       577.80664
       1.0168769       570.68339
       1.0169855       604.47943
       1.0170941       777.79788
       1.0172027       1104.6207
       1.0173113       1458.3336
       1.0174199       1675.2730
       1.0175285       1652.1679
       1.0176371       1399.5819
       1.0177457       1034.1323
       1.0178543       712.76414
       1.0179629       543.14681
       1.0180715       528.19328
       1.0181801       603.40238
       1.0182887       691.57376
       1.0183973       729.70361
       1.0185059       696.53264
       1.0186145       619.45619
       1.0187231       560.17536
       1.0188317       596.86267
       1.0189403       776.67515
       1.0190489       1042.0746
       1.0191575       1265.4295
       1.0192661       1334.3820
       1.0193747       1212.6490
       1.0194833       958.21774
       1.0195919       692.48884
       1.0197005       525.49027
       1.0198091       467.67340
       1.0199177       459.61389
       1.0200263       471.85749
       1.0201349       502.48822
       1.0202435       570.49648
       1.0203521       694.21031
       1.0204607       830.39844
       1.0205693       901.64883
       1.0206779       871.75011
       1.0207865       789.20191
       1.0208951       782.21860
       1.0210037       935.62266
       1.0211123       1189.9898
       1.0212209       1435.2289
       1.0213295       1566.6802
       1.0214381       1514.6362
       1.0215467       1280.9885
       1.0216553       947.64843
       1.0217639       639.70810
       1.0218725       456.18132
       1.0219811       399.84479
       1.0220897       403.27797
       1.0221983       423.53813
       1.0223069       447.85480
       1.0224155       498.12477
       1.0225241       634.44616
       1.0226327       858.94607
       1.0227413       1075.6781
       1.0228499       1180.3856
       1.0229585       1139.1353
       1.0230671       1022.9470
       1.0231757       964.23631
       1.0232843       998.02498
       1.0233929       1023.5380
       1.0235015       953.84524
       1.0236101       790.77463
       1.0237187       621.57785
       1.0238273       534.06595
       1.0239359       515.27701
       1.0240445       513.37063
       1.0241531       513.56961
       1.0242617       518.22312
       1.0243703       521.44930
       1.0244789       510.53303
       1.0245875       484.11041
       1.0246961       461.94329
       1.0248047       481.86317
       1.0249133       547.54545
       1.0250219       589.20483
       1.0251305       554.67894
       1.0252391       477.70792
       1.0253477       424.24488
       1.0254563       410.19672
       1.0255649       416.37812
       1.0256735       431.85576
       1.0257821       449.90776
       1.0258907       461.65931
       1.0259993       461.73863
       1.0261079       451.64907
       1.0262165       440.40222
       1.0263251       438.13832
       1.0264337       444.08705
       1.0265423       450.45627
       1.0266509       454.69882
       1.0267595       461.27396
       1.0268681       476.50528
       1.0269768       507.73824
       1.0270853       566.60494
       1.0271940       651.04240
       1.0273025       723.89002
       1.0274112       740.70177
       1.0275197       687.34318
       1.0276284       591.21913
       1.0277369       504.05098
       1.0278456       459.33970
       1.0279541       449.89763
       1.0280628       453.18680
       1.0281713       457.30264
       1.0282800       472.99862
       1.0283885       559.01546
       1.0284972       818.13426
       1.0286057       1285.3323
       1.0287144       1866.0805
       1.0288229       2360.4296
       1.0289316       2566.3379
       1.0290401       2389.6374
       1.0291488       1903.9083
       1.0292573       1320.7809
       1.0293660       887.29516
       1.0294745       765.69324
       1.0295832       904.16612
       1.0296917       1149.3926
       1.0298004       1354.8683
       1.0299089       1402.2645
       1.0300176       1255.8954
